Freq,Impedance,Phase
1.029,8.702,2.158    
1.059,8.702,2.158    
1.091,8.702,2.158    
1.122,8.702,2.158    
1.155,8.702,2.158    
1.189,8.702,2.158    
1.224,8.702,2.158    
1.260,8.702,2.158    
1.297,8.702,2.158    
1.335,8.695,2.341    
1.374,8.695,2.341    
1.414,8.695,2.341    
1.456,8.695,2.341    
1.498,8.695,2.341    
1.542,8.695,2.341    
1.587,8.695,2.341    
1.634,8.695,2.341    
1.682,8.696,2.535    
1.731,8.696,2.535    
1.782,8.696,2.535    
1.834,8.696,2.535    
1.888,8.696,2.535    
1.943,8.696,2.535    
2.000,8.704,2.846    
2.059,8.704,2.846    
2.119,8.704,2.846    
2.181,8.704,2.846    
2.245,8.704,2.846    
2.311,8.704,2.846    
2.378,8.718,3.213    
2.448,8.718,3.213    
2.520,8.718,3.213    
2.594,8.718,3.213    
2.670,8.725,3.575    
2.748,8.725,3.575    
2.828,8.725,3.575    
2.911,8.725,3.575    
2.997,8.732,3.901    
3.084,8.732,3.901    
3.175,8.732,3.901    
3.268,8.732,3.901    
3.364,8.749,4.228    
3.462,8.749,4.228    
3.564,8.749,4.228    
3.668,8.768,4.620    
3.775,8.768,4.620    
3.886,8.768,4.620    
4.000,8.791,5.011    
4.117,8.791,5.011    
4.238,8.791,5.011    
4.362,8.807,5.392    
4.490,8.807,5.392    
4.621,8.807,5.392    
4.757,8.830,5.777    
4.896,8.830,5.777    
5.040,8.853,6.151    
5.187,8.853,6.151    
5.339,8.876,6.509    
5.496,8.876,6.509    
5.657,8.900,6.853    
5.823,8.900,6.853    
5.993,8.924,7.185    
6.169,8.924,7.185    
6.350,8.952,7.517    
6.536,8.952,7.517    
6.727,8.982,7.858    
6.924,8.982,7.858    
7.127,9.013,8.206    
7.336,9.044,8.563    
7.551,9.044,8.563    
7.772,9.074,8.924    
8.000,9.105,9.285    
8.234,9.105,9.285    
8.476,9.137,9.647    
8.724,9.172,10.010    
8.980,9.209,10.371    
9.243,9.209,10.371    
9.514,9.248,10.727    
9.792,9.289,11.080    
10.079,9.325,11.429    
10.375,9.357,11.773    
10.679,9.387,12.110    
10.992,9.418,12.440    
11.314,9.447,12.763    
11.645,9.476,13.076    
11.986,9.507,13.377    
12.338,9.544,13.670    
12.699,9.584,13.949    
13.071,9.625,14.208    
13.454,9.669,14.451    
13.849,9.715,14.689    
14.254,9.763,14.923    
14.672,9.838,15.265    
15.102,9.915,15.615    
15.545,9.967,15.858    
16.000,10.051,16.222    
16.469,10.143,16.586    
16.951,10.234,16.951    
17.448,10.324,17.305    
17.959,10.410,17.657    
18.486,10.497,18.001    
19.027,10.593,18.327    
19.585,10.721,18.729    
20.159,10.818,18.995    
20.749,10.918,19.237    
21.357,11.056,19.528    
21.983,11.188,19.798    
22.627,11.316,20.057    
23.290,11.456,20.272    
23.973,11.607,20.442    
24.675,11.771,20.567    
25.398,11.938,20.672    
26.143,12.109,20.774    
26.909,12.320,20.916    
27.697,12.536,21.052    
28.509,12.691,21.132    
29.344,12.861,21.158    
30.204,13.039,21.038    
31.089,13.182,20.801    
32.000,13.366,20.413    
32.938,13.602,19.925    
33.903,13.886,19.407    
34.896,14.186,18.973    
35.919,14.471,18.653    
36.971,14.720,18.399    
38.055,14.928,18.130    
39.170,15.109,17.722    
40.317,15.247,17.203    
41.499,15.355,16.598    
42.715,15.453,15.899    
43.967,15.640,14.822    
45.255,15.916,13.652    
46.581,16.171,12.677    
47.946,16.340,11.976    
49.351,16.686,11.653    
50.797,16.533,10.301    
52.285,16.522,9.083    
53.817,16.644,8.022    
55.394,16.749,7.324    
57.018,16.822,7.347    
58.688,16.979,7.248    
60.408,17.132,5.921    
62.178,17.210,3.393    
64.000,17.281,0.971    
65.875,17.314,-0.372    
67.806,17.193,-0.884    
69.792,16.808,-1.864    
71.838,16.479,-3.498    
73.943,16.301,-4.832    
76.109,16.173,-5.065    
78.339,15.798,-5.357    
80.635,15.280,-6.392    
82.998,15.121,-7.578    
85.430,15.121,-7.371    
87.933,14.739,-6.580    
90.510,14.310,-7.273    
93.162,14.258,-8.076    
95.892,14.145,-7.382    
98.701,13.658,-6.933    
101.594,13.436,-7.740    
104.571,13.558,-6.841    
107.635,13.205,-5.303    
110.789,12.888,-6.054    
114.035,13.011,-5.257    
117.377,12.730,-3.904    
120.816,12.658,-4.217    
124.356,12.875,-2.197    
128.000,12.442,-1.405    
131.751,12.677,-1.771    
135.611,12.769,0.877    
139.585,12.722,1.286    
143.675,13.101,3.522    
147.885,13.236,3.919    
152.219,14.079,4.359    
156.679,13.997,4.941    
161.270,14.969,4.236    
165.995,15.181,3.088    
170.860,15.237,3.729    
175.866,15.728,4.961    
181.019,17.418,4.815    
186.324,18.357,1.991    
191.783,19.648,-2.029    
197.403,20.516,-7.374    
203.187,20.589,-13.311    
209.141,20.191,-20.054    
215.269,18.728,-25.638    
221.577,17.134,-29.008    
228.070,15.725,-30.744    
234.753,14.454,-31.621    
241.632,13.388,-31.175    
248.712,12.549,-30.312    
256.000,11.924,-28.990    
263.501,11.393,-27.589    
271.223,10.990,-25.965    
279.170,10.682,-24.470    
287.350,10.417,-23.034    
295.770,10.205,-21.586    
304.437,10.019,-20.260    
313.358,9.859,-18.915    
322.540,9.727,-17.581    
331.991,9.624,-16.388    
341.719,9.533,-15.218    
351.732,9.459,-14.116    
362.039,9.397,-13.106    
372.647,9.339,-12.120    
383.567,9.284,-11.117    
394.806,9.245,-10.135    
406.375,9.221,-9.180    
418.282,9.206,-8.298    
430.539,9.199,-7.478    
443.155,9.193,-6.723    
456.140,9.181,-6.007    
469.506,9.169,-5.293    
483.264,9.156,-4.561    
497.424,9.149,-3.810    
512.000,9.156,-3.097    
527.003,9.165,-2.392    
542.445,9.174,-1.685    
558.340,9.193,-1.001    
574.701,9.226,-0.344    
591.541,9.268,0.230    
608.874,9.314,0.656    
626.715,9.336,0.913    
645.080,9.322,1.190    
663.982,9.287,1.623    
683.438,9.254,2.261    
703.464,9.241,2.994    
724.077,9.242,3.754    
745.294,9.259,4.551    
767.133,9.289,5.351    
789.612,9.331,6.139    
812.749,9.385,6.898    
836.565,9.454,7.700    
861.078,9.544,8.468    
886.309,9.661,9.215    
912.280,9.816,9.867    
939.012,10.018,10.269    
966.527,10.245,10.188    
994.849,10.456,9.575    
1024.000,10.590,8.355    
1054.005,10.485,6.450    
1084.890,10.029,5.853    
1116.680,9.757,7.539    
1149.401,9.725,9.041    
1183.081,9.757,10.188    
1217.748,9.803,11.134    
1253.431,9.864,12.049    
1290.159,9.949,12.890    
1327.964,10.046,13.549    
1366.876,10.131,14.211    
1406.929,10.233,14.821    
1448.155,10.337,15.453    
1490.589,10.471,16.112    
1534.266,10.656,16.744    
1579.224,10.904,17.040    
1625.499,11.165,16.795    
1673.129,11.396,15.649    
1722.156,11.307,14.119    
1772.619,11.069,13.953    
1824.561,10.953,14.501    
1878.024,10.905,15.047    
1933.055,10.854,15.622    
1989.697,10.827,16.425    
2048.000,10.859,17.188    
2108.011,10.896,17.915    
2169.780,10.955,18.681    
2233.360,11.060,19.313    
2298.802,11.081,19.696    
2366.162,11.144,20.619    
2435.496,11.277,21.270    
2506.862,11.372,21.628    
2580.318,11.428,22.192    
2655.927,11.506,22.836    
2733.752,11.588,23.546    
2813.857,11.710,24.394    
2896.309,11.880,25.146    
2981.178,12.078,25.883    
3068.533,12.368,26.315    
3158.448,12.655,26.155    
3250.997,12.740,24.892    
3346.259,12.557,25.513    
3444.312,12.676,26.347    
3545.238,12.824,26.842    
3649.121,12.968,26.950    
3756.049,13.019,27.277    
3866.109,13.108,27.619    
3979.395,13.149,28.127    
4096.000,13.255,28.903    
4216.022,13.407,29.528    
4339.561,13.568,30.073    
4466.720,13.729,30.567    
4597.605,13.918,30.981    
4732.325,14.061,31.431    
4870.992,14.283,31.955    
5013.723,14.495,32.033    
5160.637,14.651,32.184    
5311.855,14.710,32.177    
5467.504,14.727,32.900    
5627.714,14.922,33.620    
5792.619,15.083,34.126    
5962.355,15.239,34.760    
6137.066,15.477,35.456    
6316.896,15.726,35.834    
6501.995,15.941,36.211    
6692.518,16.160,36.517    
6888.623,16.329,36.789    
7090.476,16.481,37.437    
7298.242,16.758,37.982    
7512.097,16.986,38.336    
7732.218,17.199,38.819    
7958.790,17.461,39.340    
8192.000,17.720,39.783    
8432.044,17.998,40.273    
8679.122,18.307,40.692    
8933.439,18.608,40.981    
9195.209,18.871,41.321    
9464.649,19.154,41.730    
9741.985,19.463,42.128    
10027.447,19.784,42.465    
10321.273,20.103,42.741    
10623.710,20.393,43.049    
10935.008,20.702,43.446    
11255.428,21.045,43.822    
11585.238,21.399,44.141    
11924.711,21.745,44.419    
12274.132,22.089,44.756    
12633.791,22.466,45.053    
13003.989,22.817,45.376    
13385.035,23.196,45.702    
13777.247,23.585,46.011    
14180.951,23.977,46.311    
14596.485,24.384,46.606    
15024.194,24.801,46.908    
15464.437,25.238,47.188    
15917.579,25.674,47.447    
16384.000,26.120,47.703    
16864.088,26.575,47.945    
17358.243,27.027,48.194    
17866.879,27.480,48.441    
18390.418,27.934,48.679    
18929.299,28.384,48.911    
19483.969,28.831,49.137    
20054.893,29.270,49.367    
20642.546,29.699,49.664    
