Freq,Impedance,Phase
1.029,8.684,2.296    
1.059,8.684,2.296    
1.091,8.684,2.296    
1.122,8.684,2.296    
1.155,8.684,2.296    
1.189,8.684,2.296    
1.224,8.684,2.296    
1.260,8.684,2.296    
1.297,8.684,2.296    
1.335,8.679,2.431    
1.374,8.679,2.431    
1.414,8.679,2.431    
1.456,8.679,2.431    
1.498,8.679,2.431    
1.542,8.679,2.431    
1.587,8.679,2.431    
1.634,8.679,2.431    
1.682,8.675,2.570    
1.731,8.675,2.570    
1.782,8.675,2.570    
1.834,8.675,2.570    
1.888,8.675,2.570    
1.943,8.675,2.570    
2.000,8.681,2.758    
2.059,8.681,2.758    
2.119,8.681,2.758    
2.181,8.681,2.758    
2.245,8.681,2.758    
2.311,8.681,2.758    
2.378,8.692,3.006    
2.448,8.692,3.006    
2.520,8.692,3.006    
2.594,8.692,3.006    
2.670,8.700,3.304    
2.748,8.700,3.304    
2.828,8.700,3.304    
2.911,8.700,3.304    
2.997,8.706,3.619    
3.084,8.706,3.619    
3.175,8.706,3.619    
3.268,8.706,3.619    
3.364,8.723,3.941    
3.462,8.723,3.941    
3.564,8.723,3.941    
3.668,8.743,4.292    
3.775,8.743,4.292    
3.886,8.743,4.292    
4.000,8.767,4.651    
4.117,8.767,4.651    
4.238,8.767,4.651    
4.362,8.780,5.011    
4.490,8.780,5.011    
4.621,8.780,5.011    
4.757,8.798,5.368    
4.896,8.798,5.368    
5.040,8.814,5.718    
5.187,8.814,5.718    
5.339,8.833,6.063    
5.496,8.833,6.063    
5.657,8.854,6.402    
5.823,8.854,6.402    
5.993,8.876,6.737    
6.169,8.876,6.737    
6.350,8.902,7.077    
6.536,8.902,7.077    
6.727,8.931,7.420    
6.924,8.931,7.420    
7.127,8.960,7.766    
7.336,8.988,8.112    
7.551,8.988,8.112    
7.772,9.012,8.453    
8.000,9.035,8.791    
8.234,9.035,8.791    
8.476,9.061,9.127    
8.724,9.090,9.462    
8.980,9.123,9.796    
9.243,9.123,9.796    
9.514,9.158,10.130    
9.792,9.195,10.460    
10.079,9.231,10.788    
10.375,9.263,11.111    
10.679,9.292,11.427    
10.992,9.319,11.738    
11.314,9.344,12.046    
11.645,9.372,12.352    
11.986,9.403,12.653    
12.338,9.437,12.945    
12.699,9.473,13.221    
13.071,9.510,13.480    
13.454,9.550,13.725    
13.849,9.592,13.961    
14.254,9.634,14.187    
14.672,9.698,14.519    
15.102,9.761,14.864    
15.545,9.803,15.104    
16.000,9.876,15.464    
16.469,9.962,15.827    
16.951,10.049,16.183    
17.448,10.134,16.528    
17.959,10.213,16.870    
18.486,10.289,17.204    
19.027,10.372,17.532    
19.585,10.489,17.953    
20.159,10.580,18.237    
20.749,10.671,18.497    
21.357,10.793,18.807    
21.983,10.912,19.095    
22.627,11.028,19.376    
23.290,11.154,19.637    
23.973,11.294,19.860    
24.675,11.444,20.042    
25.398,11.591,20.198    
26.143,11.740,20.344    
26.909,11.929,20.544    
27.697,12.125,20.743    
28.509,12.272,20.872    
29.344,12.436,20.939    
30.204,12.616,20.875    
31.089,12.759,20.721    
32.000,12.937,20.465    
32.938,13.162,20.116    
33.903,13.427,19.714    
34.896,13.700,19.361    
35.919,13.961,19.107    
36.971,14.202,18.917    
38.055,14.416,18.712    
39.170,14.609,18.387    
40.317,14.761,17.964    
41.499,14.895,17.443    
42.715,15.040,16.802    
43.967,15.221,15.825    
45.255,15.461,14.739    
46.581,15.690,13.927    
47.946,15.885,13.410    
49.351,16.044,12.808    
50.797,16.102,11.734    
52.285,16.168,10.566    
53.817,16.302,9.607    
55.394,16.440,8.947    
57.018,16.524,8.869    
58.688,16.650,8.572    
60.408,16.627,7.587    
62.178,16.862,6.215    
64.000,17.253,3.875    
65.875,17.359,1.838    
67.806,17.226,0.922    
69.792,16.905,-0.320    
71.838,16.560,-1.923    
73.943,16.369,-3.045    
76.109,16.189,-3.617    
78.339,15.838,-4.040    
80.635,15.449,-5.110    
82.998,15.340,-6.244    
85.430,15.329,-6.142    
87.933,14.939,-5.563    
90.510,14.529,-6.156    
93.162,14.472,-6.892    
95.892,14.352,-6.591    
98.701,13.913,-6.627    
101.594,13.719,-7.218    
104.571,13.726,-6.129    
107.635,13.327,-4.803    
110.789,13.148,-5.528    
114.035,13.260,-4.980    
117.377,12.995,-3.986    
120.816,12.929,-4.243    
124.356,12.986,-2.686    
128.000,12.568,-2.333    
131.751,12.783,-2.070    
135.611,12.749,0.574    
139.585,12.719,0.883    
143.675,13.018,2.974    
147.885,13.144,3.524    
152.219,13.797,4.901    
156.679,13.747,5.509    
161.270,14.648,6.078    
165.995,15.238,6.871    
170.860,16.310,5.647    
175.866,16.500,3.282    
181.019,17.498,4.165    
186.324,18.506,1.898    
191.783,20.056,-1.872    
197.403,20.905,-8.073    
203.187,20.681,-14.032    
209.141,20.461,-20.079    
215.269,19.035,-26.086    
221.577,17.402,-29.915    
228.070,15.883,-31.627    
234.753,14.561,-32.710    
241.632,13.399,-32.023    
248.712,12.554,-30.882    
256.000,11.924,-29.544    
263.501,11.368,-28.134    
271.223,10.945,-26.406    
279.170,10.640,-24.812    
287.350,10.381,-23.286    
295.770,10.169,-21.839    
304.437,9.984,-20.476    
313.358,9.821,-19.053    
322.540,9.699,-17.681    
331.991,9.598,-16.468    
341.719,9.513,-15.306    
351.732,9.440,-14.228    
362.039,9.374,-13.178    
372.647,9.318,-12.170    
383.567,9.267,-11.151    
394.806,9.228,-10.159    
406.375,9.204,-9.200    
418.282,9.192,-8.295    
430.539,9.187,-7.478    
443.155,9.184,-6.749    
456.140,9.170,-6.024    
469.506,9.158,-5.329    
483.264,9.147,-4.589    
497.424,9.137,-3.838    
512.000,9.142,-3.117    
527.003,9.152,-2.400    
542.445,9.163,-1.690    
558.340,9.181,-0.990    
574.701,9.214,-0.335    
591.541,9.254,0.243    
608.874,9.301,0.695    
626.715,9.330,0.973    
645.080,9.320,1.252    
663.982,9.289,1.642    
683.438,9.251,2.256    
703.464,9.237,3.001    
724.077,9.238,3.769    
745.294,9.254,4.561    
767.133,9.283,5.362    
789.612,9.325,6.166    
812.749,9.379,6.948    
836.565,9.451,7.757    
861.078,9.542,8.534    
886.309,9.663,9.291    
912.280,9.822,9.949    
939.012,10.032,10.353    
966.527,10.269,10.230    
994.849,10.487,9.538    
1024.000,10.615,8.180    
1054.005,10.464,6.220    
1084.890,9.993,5.873    
1116.680,9.745,7.636    
1149.401,9.721,9.100    
1183.081,9.754,10.257    
1217.748,9.801,11.166    
1253.431,9.857,12.072    
1290.159,9.940,12.918    
1327.964,10.036,13.612    
1366.876,10.123,14.281    
1406.929,10.228,14.904    
1448.155,10.334,15.515    
1490.589,10.462,16.176    
1534.266,10.642,16.834    
1579.224,10.895,17.121    
1625.499,11.138,16.735    
1673.129,11.295,15.831    
1722.156,11.259,14.862    
1772.619,11.133,14.598    
1824.561,11.035,14.832    
1878.024,10.976,15.243    
1933.055,10.929,15.747    
1989.697,10.896,16.376    
2048.000,10.893,17.057    
2108.011,10.909,17.858    
2169.780,10.965,18.599    
2233.360,11.024,19.267    
2298.802,11.069,19.873    
2366.162,11.125,20.751    
2435.496,11.236,21.537    
2506.862,11.358,22.239    
2580.318,11.514,22.822    
2655.927,11.664,22.956    
2733.752,11.629,23.279    
2813.857,11.707,24.428    
2896.309,11.885,25.302    
2981.178,12.093,26.073    
3068.533,12.385,26.549    
3158.448,12.689,26.365    
3250.997,12.746,25.090    
3346.259,12.572,25.924    
3444.312,12.740,26.807    
3545.238,12.908,27.219    
3649.121,13.087,27.176    
3756.049,13.130,27.327    
3866.109,13.112,27.560    
3979.395,13.166,28.544    
4096.000,13.328,29.319    
4216.022,13.507,29.857    
4339.561,13.672,30.353    
4466.720,13.838,30.753    
4597.605,13.993,31.054    
4732.325,14.108,31.762    
4870.992,14.366,32.319    
5013.723,14.599,32.443    
5160.637,14.789,32.479    
5311.855,14.816,32.429    
5467.504,14.861,33.176    
5627.714,15.051,33.906    
5792.619,15.224,34.347    
5962.355,15.370,34.951    
6137.066,15.600,35.673    
6316.896,15.852,36.100    
6501.995,16.088,36.499    
6692.518,16.319,36.789    
6888.623,16.496,37.038    
7090.476,16.644,37.651    
7298.242,16.923,38.223    
7512.097,17.167,38.578    
7732.218,17.384,39.026    
7958.790,17.646,39.547    
8192.000,17.914,39.985    
8432.044,18.194,40.469    
8679.122,18.507,40.897    
8933.439,18.819,41.202    
9195.209,19.094,41.515    
9464.649,19.383,41.913    
9741.985,19.700,42.281    
10027.447,20.020,42.624    
10321.273,20.344,42.905    
10623.710,20.648,43.198    
10935.008,20.961,43.567    
11255.428,21.305,43.947    
11585.238,21.670,44.261    
11924.711,22.023,44.537    
12274.132,22.373,44.849    
12633.791,22.753,45.153    
13003.989,23.118,45.462    
13385.035,23.509,45.778    
13777.247,23.906,46.070    
14180.951,24.310,46.359    
14596.485,24.721,46.646    
15024.194,25.148,46.934    
15464.437,25.590,47.210    
15917.579,26.041,47.463    
16384.000,26.499,47.706    
16864.088,26.961,47.939    
17358.243,27.419,48.167    
17866.879,27.869,48.392    
18390.418,28.310,48.607    
18929.299,28.740,48.808    
19483.969,29.159,49.012    
20054.893,29.550,49.213    
20642.546,29.883,49.471    
